#   1 NUMBER                 Running object number                                     
#   2 X_IMAGE                Object position along x                                    [pixel]
#   3 Y_IMAGE                Object position along y                                    [pixel]
#   4 MAG_AUTO               Kron-like elliptical aperture magnitude                    [mag]
#   5 MAGERR_AUTO            RMS error for AUTO magnitude                               [mag]
#   6 MAG_ISO                Isophotal magnitude                                        [mag]
#   7 MAGERR_ISO             RMS error for isophotal magnitude                          [mag]
#   8 MAG_APER               Fixed aperture magnitude vector                            [mag]
#   9 MAGERR_APER            RMS error vector for fixed aperture mag.                   [mag]
#  10 A_IMAGE                Profile RMS along major axis                               [pixel]
#  11 B_IMAGE                Profile RMS along minor axis                               [pixel]
#  12 THETA_IMAGE            Position angle (CCW/x)                                     [deg]
#  13 KRON_RADIUS            Kron apertures in units of A or B                         
#  14 BACKGROUND             Background at centroid position                            [count]
#  15 FLAGS                  Extraction flags                                          
#  16 CLASS_STAR             S/G classifier output                                     
         1   8470.1445     46.0818  15.9762   0.0952  15.3292   0.0706  15.5654   0.0787    16.753    13.368  24.92  3.50     4.477073  19  0.000
         2   8498.2246     10.3726  16.2720   0.1090  16.2671   0.1088  16.3586   0.1135    17.089     7.094   4.58  3.50    -3.407958  27  0.000
         3    488.5099     56.1303  12.8469   0.0225  12.6610   0.0207  15.6730   0.0827   233.117    11.010  -0.92  3.50     4.979547  17  0.000
         4   7588.8750     39.7093  17.0339   0.1548  17.0473   0.1558  17.0518   0.1562     2.321     2.149 -84.02  3.50     13.59526   0  0.983
         5    410.4974     10.5250  17.7834   0.2230  13.4841   0.0302  16.3875   0.1150   234.517     6.457   0.00  3.50    -4.696424  24  0.000
         6   5508.6440     31.2477  18.7798   0.3460  18.8351   0.3549  18.7948   0.3495     2.019     1.930 -84.77  3.50     13.71346   0  0.971
         7   6485.4106     38.4052  20.1896   0.6630  21.7715   1.3724  20.3286   0.7158     1.468     0.965 -84.97  7.78     13.75895   0  0.166
         8   5887.8037     70.1511  14.9902   0.0604  14.9820   0.0602  14.9584   0.0595     2.479     2.332 -81.73  3.50     13.71439   0  0.991
         9   2825.1001     49.4178  20.5545   0.7837  20.8704   0.9061  20.4134   0.7451     1.475     1.231 -76.78  3.87     13.80155   0  0.665
        10   6749.5083     61.4675  20.9111   0.9240  21.6181   1.2786  20.5563   0.7975     1.071     1.065 -47.91  5.32     13.72169   0  0.482
        11   6874.1450     65.4731  20.8759   0.9093  21.6316   1.2866  20.7558   0.8773     1.083     0.994  16.23  5.87     13.69973   0  0.523
        12   6658.4868     65.7436  20.8557   0.9011  21.8806   1.4430  21.2861   1.1341     1.020     0.999  -7.54  6.79     13.72194   0  0.580
        13   6458.7695     69.8755  19.7038   0.5300  20.5002   0.7641  19.3601   0.4545     1.723     1.649 -67.38  6.40     13.74126   0  0.111
        14   2211.7805     71.9965  20.3683   0.7195  20.6111   0.8041  20.2832   0.7006     1.581     1.391 -87.71  4.53     14.23153   0  0.768
        15   3945.6694     73.6284  18.9499   0.3742  19.0156   0.3856  18.8798   0.3635     1.981     1.855 -72.03  3.50     13.67163   0  0.972
        16   5411.4619     87.5536  19.6272   0.5117  21.3053   1.1072  19.2285   0.4275     1.616     1.274 -45.94  8.02     13.70553   0  0.070
        17   2946.8057    101.0780  16.3834   0.1147  16.3879   0.1150  16.3384   0.1124     2.338     2.220 -81.85  3.50     13.80167   0  0.984
        18   2900.3958    152.1822  13.8057   0.0350  13.7889   0.0347  13.7721   0.0345     3.535     3.305 -75.33  3.50     13.83267   0  1.000
        19   5715.9897    105.9105  18.9207   0.3692  18.9860   0.3804  18.9715   0.3794     1.923     1.847 -75.77  3.50     13.72257   0  0.971
        20   4403.2021    118.3476  18.0043   0.2420  18.0325   0.2452  17.9458   0.2360     2.181     2.028 -82.35  3.50     13.67375   0  0.981
        21   7034.1680    125.3033  20.3962   0.7292  21.6021   1.2693  20.2827   0.7004     1.354     1.110 -64.54  6.82     13.70713   0  0.022
        22     65.7754    199.0220  13.5552   0.0312  13.5377   0.0309  13.5207   0.0307     3.022     2.745 -82.17  3.50     13.57196   0  1.000
        23   5174.1714    198.8191  13.9427   0.0373  13.9281   0.0370  13.9108   0.0367     3.095     2.954  88.57  3.50     13.74215   0  1.000
        24   7523.7573    163.8141  19.8179   0.5582  19.9987   0.6065  19.7677   0.5498     1.721     1.558 -73.66  3.90     13.75502   0  0.882
        25    323.6724    172.5657  18.8193   0.3526  19.5234   0.4873  18.6119   0.3211     2.546     2.168 -10.50  6.17      13.7654   0  0.061
        26    248.8813    178.1486  19.1296   0.4070  20.5830   0.7939  18.7760   0.3465     2.396     1.775 -10.76  7.45      13.7538   0  0.001
        27   2456.0320    189.7286  18.9163   0.3686  19.2669   0.4330  18.8945   0.3660     2.425     2.042  79.48  4.92     13.95334   0  0.251
        28   6052.6060    194.9460  19.2723   0.4341  19.3758   0.4552  19.1203   0.4065     1.880     1.796 -72.16  3.69     13.71079   3  0.957
        29   2834.6365    194.9030  20.9722   0.9505  21.5591   1.2443  20.7491   0.8744     1.222     0.980 -76.17  5.36     13.83916   0  0.636
        30   6044.0088    196.1618  19.3565   0.4513  19.4731   0.4761  19.2016   0.4222     1.879     1.791 -74.10  3.88     13.71189   3  0.951
        31   2370.6992    204.7113  20.2581   0.6843  21.3260   1.1177  20.4405   0.7548     1.470     1.187 -85.27  6.87     14.00465   0  0.184
        32   5567.1079    215.5122  20.0013   0.6074  20.1462   0.6491  19.8544   0.5726     1.715     1.516  86.97  3.82     13.71309   0  0.854
        33   8215.8467    263.8517  16.9998   0.1525  17.4485   0.1874  17.0409   0.1554     8.049     6.031 -16.34  4.82     13.75705   0  0.000
        34   3107.1201    224.9698  19.2436   0.4286  19.6154   0.5084  19.2276   0.4273     3.109     1.818 -41.54  4.61     13.77291   0  0.001
        35   1031.9075    236.1201  20.7709   0.8661  21.2202   1.0645  20.5080   0.7794     1.286     1.181 -50.87  4.63     13.93678   0  0.688
        36   2469.0198    272.1964  14.2661   0.0433  14.2539   0.0430  14.2377   0.0427     2.574     2.413 -82.88  3.50      13.9338   0  1.000
        37   3103.4883    264.7363  16.6515   0.1298  16.6579   0.1302  16.6169   0.1278     2.323     2.183 -85.96  3.50     13.78176   0  0.989
        38   8495.1885    310.8998  19.3346   0.4471  21.4503   1.1837  99.0000  99.0000     4.065     0.345  86.49  9.96      10.5822   3  0.075
        39   4540.8467    280.1078  17.7303   0.2134  17.7559   0.2159  17.6839   0.2091     2.232     2.038 -81.77  3.50     13.71311   0  0.982
        40   5085.0415    274.0075  20.7535   0.8591  21.2296   1.0691  20.7607   0.8793     1.219     1.189  89.70  4.61     13.72814   0  0.674
        41   7889.7832    301.0412  17.1936   0.1666  17.2100   0.1679  17.1467   0.1632     2.277     2.092 -76.10  3.50     13.80302   0  0.983
        42   7044.9497    329.9398  14.4582   0.0473  14.4463   0.0470  14.4286   0.0466     2.546     2.355 -78.32  3.50     13.74116   0  0.999
        43   7235.0435    330.2681  16.7832   0.1379  16.7914   0.1384  16.7547   0.1362     2.304     2.120 -77.80  3.50     13.73492   0  0.983
        44   7309.9727    322.5992  20.5956   0.7988  20.9576   0.9432  20.2854   0.7013     1.439     1.226 -88.68  4.42     13.73639   0  0.655
        45   5370.8257    326.2310  19.8937   0.5780  20.0470   0.6201  19.9477   0.5982     1.726     1.557 -85.59  3.51     13.72161   0  0.907
        46   6639.1816    333.2719  20.4227   0.7380  21.1345   1.0234  19.8275   0.5654     1.533     1.206  53.68  5.66     13.69815   0  0.623
        47   1680.0039    334.6448  20.8349   0.8923  21.5927   1.2638  20.5649   0.8008     1.122     1.096 -16.33  5.91     14.34439   0  0.583
        48    573.4091    338.2312  20.2831   0.6917  20.5898   0.7963  20.0802   0.6366     1.580     1.427  76.76  4.42     13.76863   0  0.646
        49   3421.9944    372.1010  18.3492   0.2840  19.1057   0.4021  18.3366   0.2827     4.676     2.743  31.71  5.78     13.79052   0  0.000
        50    464.5525    371.6541  18.4032   0.2910  18.7271   0.3377  18.3831   0.2888     3.614     3.177   7.76  4.54     13.73966   0  0.000
        51   2181.0181    367.0365  19.2989   0.4397  19.7651   0.5446  19.2392   0.4296     2.113     1.954  30.11  5.31     13.98745   0  0.144
        52   5936.9570    371.1371  20.1241   0.6432  20.6889   0.8335  20.0617   0.6311     1.569     1.396 -70.03  5.85     13.71511   0  0.747
        53   3155.9500    395.9146  15.8507   0.0898  15.8488   0.0897  15.8185   0.0885     2.406     2.247 -83.71  3.50     13.79373   0  0.985
        54   7751.3188    390.4228  17.3940   0.1827  17.4132   0.1844  17.3465   0.1789     2.203     2.049 -85.28  3.50      13.7961   0  0.982
        55    818.3607    388.7997  19.4712   0.4757  19.5822   0.5006  19.4038   0.4638     1.875     1.706 -83.13  3.50     13.79836   0  0.948
        56   4849.1890    397.5907  17.7238   0.2127  17.7495   0.2152  17.6933   0.2100     2.195     2.031 -84.37  3.50     13.70008   0  0.982
        57   5634.3159    406.6136  20.4759   0.7561  20.8438   0.8951  20.5246   0.7856     1.450     1.334  66.33  4.67     13.71336   0  0.636
        58   6921.2646    407.5269  19.7548   0.5425  20.3485   0.7125  19.5985   0.5080     1.861     1.602  80.48  5.67     13.72487   0  0.744
        59   6452.5913    409.5808  19.5715   0.4987  21.0413   0.9804  19.2060   0.4230     1.613     1.436  69.99  7.76      13.6904   0  0.006
        60   4678.6934    419.2339  19.6540   0.5180  21.4996   1.2108  18.9590   0.3772     1.486     1.138 -19.44  8.39     13.72402   0  0.329
        61   7106.5234    431.5450  19.7786   0.5481  19.8890   0.5766  19.7428   0.5434     1.768     1.610 -81.94  3.55     13.74372   0  0.918
        62   2428.7717    434.6578  20.4687   0.7535  20.8119   0.8820  20.3069   0.7085     1.436     1.357 -68.87  4.26     13.90032   0  0.668
        63   3027.1125    446.9838  19.1930   0.4185  19.2727   0.4341  19.1233   0.4071     1.903     1.791  87.29  3.50      13.8214   0  0.963
        64   8072.3965    455.1504  17.4541   0.1879  17.4693   0.1892  17.4074   0.1840     2.206     2.039 -82.76  3.50     13.78944   0  0.984
        65   4515.9077    470.4017  19.0412   0.3904  19.4082   0.4621  18.9287   0.3719     3.133     1.897 -45.29  4.75      13.7285   0  0.006
        66   3087.7754    467.4165  20.5869   0.7961  22.1672   1.6466  22.3311   1.9282     1.075     0.832 -57.70  7.87     13.81791   0  0.609
        67   1813.2477    469.1478  19.0134   0.3853  19.0771   0.3967  18.9816   0.3811     2.020     1.826 -88.18  3.50     14.07391   0  0.968
        68   7133.1069    472.1927  18.6439   0.3250  18.7002   0.3335  18.6398   0.3253     2.049     1.855 -81.32  3.50     13.74435   0  0.974
        69   2811.0095    486.0101  20.1598   0.6535  20.3798   0.7229  20.0691   0.6333     1.556     1.500 -85.07  4.06     13.84955   0  0.802
        70   3392.5537    488.0013  20.9385   0.9358  21.6059   1.2715  20.9549   0.9654     1.163     0.974  88.60  5.65     13.79943   0  0.556
        71   8030.7402    511.5327  18.3812   0.2883  19.7799   0.5485  18.3165   0.2801     3.654     2.320  22.96  7.46     13.79944   0  0.000
        72   1016.6891    508.2714  20.5772   0.7923  21.0893   1.0023  20.6526   0.8350     1.428     1.291 -82.51  5.03     13.80963   0  0.234
        73    784.1635    514.1400  20.3948   0.7286  21.5122   1.2178  20.0922   0.6402     1.259     1.087 -44.39  6.92     13.74242   0  0.641
        74   4929.0127    518.4741  21.0938   1.0052  21.9410   1.4836  21.0097   0.9913     1.068     0.800  89.94  6.18     13.71135   0  0.505
        75   5601.9507    522.8384  19.9604   0.5961  20.1450   0.6487  19.8481   0.5709     1.644     1.556 -63.51  3.85     13.70201   0  0.885
        76   5670.3281    528.2552  19.7048   0.5301  20.0709   0.6270  19.6091   0.5105     1.953     1.789 -43.26  4.73     13.71808   0  0.184
        77   2819.8557    539.3690  19.7781   0.5483  20.2099   0.6685  19.7790   0.5527     1.937     1.708 -69.75  4.99     13.85917   0  0.100
        78   2199.0593    548.3950  18.3436   0.2832  18.7446   0.3404  18.2676   0.2738     4.324     2.539  10.62  5.07     13.91216   0  0.000
        79   6091.4014    544.2258  19.2543   0.4305  19.3605   0.4520  19.2664   0.4351     1.917     1.715 -84.72  3.60     13.69227   0  0.959
        80    369.8106    545.0338  20.2533   0.6827  21.3802   1.1460  19.8793   0.5793     1.307     1.281 -81.92  6.78     13.69561   0  0.461
        81   3915.2410    566.6145  20.4341   0.7420  21.3408   1.1254  19.9876   0.6095     1.439     1.156 -80.44  6.37     13.77136   0  0.043
        82   7956.4053    569.1462  20.8765   0.9094  21.5406   1.2338  20.0707   0.6338     1.212     0.987 -74.08  5.34     13.79322   0  0.638
        83   2765.6128    717.7843  13.9190   0.0369  13.8898   0.0364  13.8856   0.0363     7.030     4.785 -87.35  3.50     13.93923   0  0.266
        84   4735.6982    583.1548  20.0350   0.6170  20.2756   0.6890  19.9237   0.5915     1.623     1.435 -71.65  4.33     13.71619   0  0.804
        85   5880.8945    586.8817  20.2538   0.6826  20.7736   0.8666  19.8892   0.5820     1.592     1.306 -83.69  5.28     13.71466   0  0.660
        86    402.5251    593.5117  20.7864   0.8724  21.3084   1.1087  20.5546   0.7969     1.388     0.999  89.31  5.27     13.71644   0  0.604
        87   2023.0288    594.6222  20.5120   0.7687  20.9221   0.9280  20.7989   0.8955     1.444     1.217 -88.45  4.57     13.92332   0  0.636
        88   7966.1006    597.9162  18.8335   0.3546  18.8876   0.3635  18.7348   0.3399     1.971     1.816 -77.96  3.50     13.79115   0  0.970
        89   6663.9917    625.5154  16.3126   0.1111  16.3147   0.1112  16.2813   0.1095     2.324     2.171 -86.35  3.50     13.70504   0  0.984
        90   5722.0757    615.5845  18.9233   0.3696  18.9878   0.3807  18.7932   0.3492     1.970     1.829  87.03  3.50     13.73482   0  0.968
        91   6783.2939    616.0839  20.9410   0.9370  21.8948   1.4525  21.2929   1.1378     1.050     0.928  63.95  6.28     13.70566   0  0.518
        92   1590.5376    618.4407  18.8010   0.3494  18.8626   0.3594  18.8134   0.3525     2.038     1.867 -79.67  3.50     13.93761   0  0.973
        93   4014.2046    619.6508  19.0530   0.3924  19.1279   0.4061  19.0874   0.4003     1.958     1.829 -88.88  3.50     13.76814   0  0.967
        94   2254.0374    626.0766  20.2861   0.6931  21.2600   1.0843  20.1260   0.6505     1.625     1.187  39.14  6.29     13.88379   0  0.008
        95   8273.5410    641.7772  18.4076   0.2916  18.8124   0.3512  18.3734   0.2875     4.054     2.503  40.43  4.92     13.74282   0  0.006
        96   5573.1030    642.4249  16.9200   0.1469  16.9305   0.1476  16.8908   0.1450     2.257     2.104 -88.74  3.50     13.71398   0  0.983
        97   6533.9707    633.0907  20.4747   0.7555  20.8739   0.9076  20.0970   0.6417     1.363     1.282 -88.92  4.21     13.68762   0  0.598
        98   1966.1954    656.5659  18.2865   0.2760  19.1058   0.4021  18.2918   0.2769     3.687     3.594 -80.82  6.01      13.9128   0  0.000
        99   5060.7646    643.3160  21.0420   0.9817  21.9446   1.4861  21.0667   1.0190     1.003     0.881 -73.79  6.49     13.71593   0  0.486
       100   2326.2356    657.4464  16.8916   0.1450  16.9031   0.1458  16.8406   0.1417     2.345     2.154 -79.63  3.50     13.87548   0  0.983
       101   1892.4136    652.3142  19.4527   0.4721  20.1766   0.6583  19.4006   0.4632     2.049     1.888  -6.89  6.01     13.92918   0  0.041
       102   2074.9351    659.8598  20.6156   0.8067  22.0146   1.5349  20.4187   0.7470     1.342     0.776 -82.27  7.56     13.87851   0  0.318
       103    747.5165    661.4859  21.1999   1.0557  22.0923   1.5908  20.5607   0.7992     0.934     0.931 -80.20  5.99     13.72587   0  0.440
       104   7201.3716    679.7552  16.4110   0.1162  16.4146   0.1164  16.3803   0.1146     2.302     2.146 -84.86  3.50     13.75435   0  0.985
       105   2014.2369    668.2086  20.3358   0.7087  20.6055   0.8021  20.2823   0.7003     1.617     1.341  86.76  4.01     13.88955   0  0.760
       106   7647.6357    710.3323  13.9274   0.0370  13.9126   0.0368  13.8977   0.0365     2.714     2.528 -77.35  3.50     13.82278   0  1.000
       107   8341.8477    681.8605  19.5071   0.4842  20.3998   0.7296  19.3706   0.4567     2.221     1.827 -77.27  6.22     13.73817   0  0.002
       108   8458.8125    684.0223  20.6805   0.8304  20.7582   0.8604  99.0000  99.0000     1.238     1.206 -74.67  3.50     13.70158   0  0.627
       109   4563.4771    689.0176  20.3204   0.7041  21.7038   1.3302  20.2481   0.6891     1.358     0.979 -67.21  7.35     13.73767   0  0.063
       110   4421.9761    695.7137  19.6275   0.5113  19.7522   0.5414  19.6065   0.5098     1.778     1.621 -85.10  3.52     13.74855   0  0.941
       111   3436.1606    695.7469  20.5392   0.7785  20.9339   0.9330  20.3724   0.7308     1.409     1.245  85.22  4.81     13.81611   0  0.579
       112   1931.7750    717.9842  17.4700   0.1892  17.4891   0.1909  17.4321   0.1861     2.256     2.073 -87.92  3.50     13.88171   0  0.983
       113   3292.2729    723.0060  20.3185   0.7036  21.3563   1.1335  19.9773   0.6066     1.377     1.274  -4.77  6.59     13.83104   0  0.021
       114   8294.4756    724.6497  20.5546   0.7844  21.9001   1.4560  20.6610   0.8384     1.256     0.883 -58.17  7.47     13.74331   0  0.508
       115   6537.2183    728.3746  19.4187   0.4647  19.9087   0.5819  19.3641   0.4553     2.391     1.967 -75.35  4.97     13.68954   0  0.002
       116   5047.9248    728.0586  20.3217   0.7043  21.0168   0.9694  20.1306   0.6519     1.619     1.217  17.14  5.26     13.72989   0  0.595
       117    605.9999    730.4681  19.6839   0.5248  19.8418   0.5642  19.5718   0.5017     1.833     1.637  80.53  4.01     13.71068   0  0.933
       118   5157.7856    737.1966  19.7607   0.5441  20.5704   0.7893  19.8022   0.5587     2.018     1.709  88.14  5.79     13.73054   0  0.001
       119   3300.5662    742.4910  20.2684   0.6870  20.5229   0.7721  19.5312   0.4922     1.459     1.426  89.18  4.24      13.8357   0  0.795
       120    462.7446    747.9807  19.2845   0.4371  20.9605   0.9447  19.1586   0.4138     2.838     1.166   5.07  7.92     13.69337   0  0.001
       121   5589.7534    777.1336  17.1973   0.1669  17.2128   0.1681  17.1724   0.1651     2.215     2.065 -82.18  3.50     13.72287   0  0.983
       122   7295.6299    780.1697  17.4956   0.1915  17.5144   0.1931  17.4601   0.1886     2.187     2.041 -84.34  3.50     13.77743   0  0.982
       123   7968.2700    800.0845  14.9734   0.0599  14.9647   0.0597  14.9405   0.0590     2.488     2.287 -77.06  3.50     13.80968   0  0.993
       124   5784.5356    780.2793  19.8635   0.5705  20.5097   0.7675  19.7912   0.5559     1.918     1.744  43.57  5.40     13.73452   0  0.001
       125   2255.3477    789.6639  18.6587   0.3274  19.0934   0.3997  18.4026   0.2915     2.704     2.421   3.73  5.26      13.8476   0  0.136
       126   8215.4678    793.2092  18.2947   0.2767  18.3336   0.2817  18.2878   0.2764     2.150     1.901 -68.92  3.50     13.74056   0  0.978
