#   1 NUMBER                 Running object number                                     
#   2 X_IMAGE                Object position along x                                    [pixel]
#   3 Y_IMAGE                Object position along y                                    [pixel]
#   4 MAG_AUTO               Kron-like elliptical aperture magnitude                    [mag]
#   5 MAGERR_AUTO            RMS error for AUTO magnitude                               [mag]
#   6 MAG_ISO                Isophotal magnitude                                        [mag]
#   7 MAGERR_ISO             RMS error for isophotal magnitude                          [mag]
#   8 MAG_APER               Fixed aperture magnitude vector                            [mag]
#   9 MAGERR_APER            RMS error vector for fixed aperture mag.                   [mag]
#  10 A_IMAGE                Profile RMS along major axis                               [pixel]
#  11 B_IMAGE                Profile RMS along minor axis                               [pixel]
#  12 THETA_IMAGE            Position angle (CCW/x)                                     [deg]
#  13 KRON_RADIUS            Kron apertures in units of A or B                         
#  14 BACKGROUND             Background at centroid position                            [count]
#  15 FLAGS                  Extraction flags                                          
#  16 CLASS_STAR             S/G classifier output                                     
         1   8471.0801     46.3373  15.2576   0.1127  14.0483   0.0646  14.3593   0.0745    17.786    14.794  14.05  3.50     15.78999  19  0.026
         2   8498.3105     10.5651  15.0589   0.1028  14.8789   0.0947  15.0855   0.1041    18.461     7.733   7.58  3.50    -12.09532  27  0.001
         3    471.0627     56.9456  11.7204   0.0221  11.3591   0.0187  14.3846   0.0754   226.762    12.627  -0.89  3.50     18.50628  17  0.001
         4    394.5597     11.5339  99.0000  99.0000  12.1862   0.0274  15.1281   0.1062   227.400     7.412  -0.03  0.00    -16.10693  25  0.058
         5   7217.4556     26.9461  20.3344   1.1679  21.6943   2.1840  99.0000  99.0000     1.329     0.976  67.26  7.70     48.95635  16  0.654
         6   7573.1079     19.5478  99.0000  99.0000  19.0691   0.6519  99.0000  99.0000     2.429     1.170  84.19  0.00     48.66509  16  0.968
         7   7583.7070     17.7020  19.8539   0.9358  19.3234   0.7329  99.0000  99.0000     3.267     1.013   3.04  3.50     48.64817  16  0.983
         8   6472.4233     13.2282  19.0323   0.6410  19.3202   0.7318  99.0000  99.0000     3.398     2.378  44.49  3.50     49.11575  16  0.003
         9   6448.1387     45.2317  18.1597   0.4289  18.4410   0.4882  18.0764   0.4129     5.113     2.730   8.43  4.64     49.08224   0  0.016
        10   2885.9109    123.9473  14.9213   0.0965  14.9472   0.0977  14.8871   0.0950     6.955     3.849  88.04  3.50     49.41411   3  0.028
        11   2898.6641    140.8887  14.8444   0.0932  14.8490   0.0934  14.8039   0.0914     7.506     2.935 -82.75  3.50     49.41559   3  0.023
        12   3510.8696     59.1669  19.1452   0.6754  19.8287   0.9250  18.9152   0.6080     2.571     1.791  82.51  6.13     49.24101   0  0.105
        13   5397.4370     62.3298  18.9826   0.6267  20.0111   1.0060  18.8249   0.5832     2.499     2.002  80.30  7.03     49.04047   0  0.012
        14   5159.6973    170.2818  15.0449   0.1022  15.0614   0.1029  15.0023   0.1002     7.474     3.758  87.35  3.50     49.08841   3  0.029
        15   5172.4873    187.7148  14.9218   0.0965  14.9156   0.0963  14.8667   0.0941     7.509     2.962 -87.10  3.50     49.08202   3  0.024
        16     51.2001    171.5879  14.8175   0.0920  14.8287   0.0925  14.7855   0.0907     6.163     3.862 -89.54  3.50     49.07317   3  0.022
        17     62.5132    185.5168  15.4183   0.1213  15.4909   0.1255  15.3241   0.1162     7.222     3.431 -74.69  3.50     49.11945   3  0.028
        18   6586.9287    115.5425  19.6771   0.8629  20.6787   1.3681  19.3703   0.7503     2.230     1.311  58.21  6.74     48.99325   0  0.194
        19   6490.9668    121.7738  19.4936   0.7929  19.9350   0.9714  19.3749   0.7519     2.528     1.598  70.93  5.34     49.01442   0  0.326
        20    309.3291    148.2375  18.9294   0.6113  19.0518   0.6467  99.0000  99.0000     3.036     2.263  74.79  3.50     49.26607   2  0.119
        21    318.3781    148.8719  19.4891   0.7911  19.8292   0.9252  99.0000  99.0000     2.943     1.726   4.13  3.50     49.26753   3  0.030
        22   2454.5439    244.3130  14.9116   0.0961  14.9164   0.0963  14.8790   0.0947     6.315     3.335  85.89  3.50     49.41927   3  0.020
        23   8204.5840    241.0212  16.4146   0.1920  16.7367   0.2227  16.4990   0.1996     9.017     6.965  15.84  4.56     48.99614   0  0.000
        24   2357.2012    181.9844  19.3841   0.7540  20.7194   1.3940  19.1763   0.6860     2.077     1.567 -75.82  7.58     49.43415   0  0.135
        25   2466.6667    259.1154  15.7525   0.1415  15.7918   0.1441  15.7021   0.1383     6.656     3.010 -80.18  3.50     49.40898   3  0.027
        26    508.7892    192.1224  19.0782   0.6548  21.4513   1.9529  17.8539   0.3727     1.685     1.291 -51.94  8.86     49.27555   0  0.008
        27   6613.7070    199.0435  18.8074   0.5780  19.2250   0.7005  18.7217   0.5561     3.908     2.194  25.95  4.99     48.99252   0  0.015
        28   3093.8301    201.6849  19.3704   0.7493  20.6877   1.3739  19.0514   0.6475     2.304     1.785 -25.95  7.24     49.28287   0  0.001
        29   7029.7554    302.9742  14.9335   0.0971  14.9426   0.0975  14.9167   0.0963     5.542     3.453  81.98  3.50     49.00049   3  0.041
        30   7041.8306    315.6257  16.5194   0.2015  16.6016   0.2092  16.4812   0.1980     7.071     3.022 -78.73  3.50     48.99881   3  0.029
        31   7759.8433    261.3311  19.8972   0.9550  20.9894   1.5786  20.0334   1.0199     1.996     1.365  67.23  6.68     48.99312   0  0.012
        32   6761.7930    284.9413  19.2775   0.7178  20.1958   1.0953  19.0958   0.6609     2.171     1.719  70.03  6.68     48.99262   0  0.116
        33   5846.6743    295.9039  18.9599   0.6201  19.4204   0.7664  18.7890   0.5736     3.450     2.143  20.16  5.25     49.04028   0  0.292
        34   6625.0581    307.9303  19.4665   0.7830  19.8597   0.9382  18.9687   0.6232     2.248     1.720  62.27  5.16     48.99362   0  0.251
        35    452.6727    348.2294  17.8649   0.3745  18.1332   0.4236  17.8339   0.3692     5.299     3.756  23.74  4.43     49.29047   0  0.000
        36   3408.1833    347.6090  18.0854   0.4146  18.7363   0.5593  18.0669   0.4111     5.517     2.875  29.97  5.62     49.24056   0  0.000
        37   2166.8291    342.2778  18.6181   0.5297  18.9256   0.6102  18.4202   0.4839     3.240     2.069  71.68  4.69     49.36872   2  0.117
        38   2174.8083    342.4703  19.1387   0.6733  19.7986   0.9122  18.8291   0.5843     3.099     1.507   6.17  5.84     49.36908   3  0.475
        39   4667.1650    395.1797  17.5609   0.3256  18.2103   0.4390  17.5328   0.3214     5.357     3.812   8.90  5.88      49.1068   0  0.001
        40   6907.0610    382.3348  18.8519   0.5899  19.1500   0.6767  18.7225   0.5563     2.798     2.083  74.52  4.59     48.99476   2  0.705
        41   4883.6040    375.2279  19.9056   0.9586  20.8778   1.4995  19.4854   0.7913     1.826     1.351  58.20  6.59     49.06516   0  0.308
        42   6439.8115    384.5525  18.5425   0.5117  19.1268   0.6695  18.4841   0.4983     4.151     2.371  24.20  5.31      49.0162   0  0.043
        43   6916.0034    384.3763  19.9506   0.9787  20.8310   1.4675  19.3515   0.7438     2.067     1.307  16.88  6.08      48.9949   3  0.077
        44    848.8799    401.3647  20.3168   1.1585  21.1846   1.7270  19.9906   0.9998     1.521     1.248  76.69  6.25     49.32737   0  0.549
        45   4501.9561    445.2436  19.0693   0.6522  19.7400   0.8879  18.9350   0.6136     3.009     1.968 -47.70  5.88     49.10924   0  0.001
        46   3074.0562    444.0749  19.8438   0.9318  21.1081   1.6673  19.8579   0.9402     1.649     1.447  28.32  7.30     49.28214   0  0.551
        47   8017.6147    487.6560  18.0327   0.4046  18.7502   0.5629  18.0098   0.4004     5.523     2.932  32.88  6.00     49.04483   0  0.000
        48   4134.3848    472.9007  19.8602   0.9388  20.9365   1.5406  19.5872   0.8294     1.730     1.464  73.87  6.77     49.16705   0  0.314
        49   8071.5688    486.1716  20.4954   1.2577  22.1960   2.7516  19.4462   0.7771     1.261     0.726  17.33  7.75     49.02961   0  0.536
        50   6517.4185    494.8577  19.4591   0.7805  20.3465   1.1740  19.0640   0.6513     2.126     1.651  59.63  6.65     48.99263   0  0.234
        51   3471.4382    504.9935  18.7118   0.5532  19.8337   0.9271  18.5561   0.5152     2.743     2.097  70.85  7.21     49.24525   0  0.032
        52   2805.1792    517.1135  19.9752   0.9900  21.3193   1.8376  19.6293   0.8458     1.995     1.177  50.07  7.20     49.30251   0  0.582
        53   2185.9189    524.4054  18.6011   0.5257  19.2223   0.6996  18.4956   0.5010     4.431     2.332  21.72  5.66     49.34075   0  0.000
        54    357.1594    521.6800  19.7916   0.9096  21.2425   1.7738  19.0986   0.6618     1.923     1.178 -76.70  7.66     49.27375   0  0.024
        55   2695.3652    523.2222  20.0759   1.0369  21.0795   1.6455  19.6493   0.8536     1.606     1.381 -55.85  6.69     49.30071   0  0.016
        56    384.8037    523.9219  19.4389   0.7733  21.1839   1.7265  18.5416   0.5117     1.831     1.434  27.76  8.04     49.28355   0  0.005
        57    397.3305    541.3781  19.5327   0.8073  21.2463   1.7769  18.6499   0.5380     1.780     1.172  63.16  8.16     49.28991   0  0.052
        58    117.0136    541.3564  20.1146   1.0555  21.1310   1.6849  19.7867   0.9097     1.557     1.220  63.53  6.75     49.24026   0  0.663
        59     48.5181    547.6874  19.4181   0.7658  20.5008   1.2605  18.6761   0.5445     2.120     1.603  47.58  6.98     49.10127   0  0.004
        60   6680.3350    549.1620  20.1066   1.0516  21.6126   2.1034  19.5583   0.8185     1.355     1.167 -49.86  7.82     49.02667   0  0.259
        61   1727.9066    558.3762  20.1054   1.0511  21.4773   1.9763  19.5301   0.8078     1.590     1.065  56.62  7.46       49.363   0  0.009
        62    853.7190    567.5190  19.8836   0.9490  21.0182   1.5996  19.4140   0.7656     1.894     1.262  42.18  6.87     49.30831   0  0.033
        63   2761.9927    707.0480  13.9382   0.0614  13.9514   0.0617  13.9827   0.0626    11.128     8.265  56.63  3.50     49.33033   0  0.029
        64   7185.0610    652.9938  14.7691   0.0900  14.7688   0.0900  14.7589   0.0896     4.744     4.256 -83.36  3.50     48.99186   3  0.140
        65   8262.0625    617.5437  17.5857   0.3293  17.7482   0.3548  17.5474   0.3236     5.853     3.101  19.26  3.94     48.99004   0  0.019
        66   2239.9602    601.1432  20.1797   1.0877  21.1217   1.6777  19.9815   0.9956     1.874     1.163  36.29  6.38     49.32127   0  0.006
        67   1954.4810    633.1426  17.7445   0.3543  18.2769   0.4526  17.7335   0.3525     5.336     4.194  29.31  5.14     49.35964   0  0.000
        68   7633.1421    682.4975  15.0930   0.1045  15.1170   0.1056  15.0596   0.1029     6.378     3.556  84.42  3.50     49.03411   3  0.025
        69   7195.9575    663.4976  16.0737   0.1641  16.3180   0.1836  16.0508   0.1624     6.276     2.537 -87.93  3.50     48.99359   3  0.053
        70   1881.3647    627.9481  18.0174   0.4017  18.3064   0.4588  17.9553   0.3905     4.868     2.988   5.08  4.59     49.35077   0  0.011
        71   1916.9449    691.3398  14.7763   0.0903  14.7765   0.0903  14.7599   0.0896     5.356     3.166 -85.10  3.50     49.33617   3  0.859
        72   7645.5303    697.7893  15.7198   0.1394  15.7582   0.1419  15.6626   0.1358     6.719     3.153 -81.90  3.50     49.03405   3  0.025
        73   1926.4060    701.4464  16.1146   0.1672  16.2641   0.1791  16.0817   0.1647     6.431     3.125 -81.18  3.50     49.32738   3  0.029
        74   7203.2178    653.5430  18.3051   0.4585  18.3713   0.4727  18.1846   0.4340     2.842     2.260  56.36  3.50     48.99388   3  0.983
        75   8327.2139    657.4767  19.1612   0.6804  19.9617   0.9834  19.0248   0.6396     2.499     2.095  85.25  6.28     48.96766   0  0.004
        76   4549.1553    663.0187  19.6815   0.8646  20.5652   1.2984  19.6176   0.8412     2.129     1.619 -89.67  6.30     49.10176   0  0.002
        77   7651.9038    682.3533  18.1557   0.4280  18.2298   0.4429  17.8512   0.3722     3.260     1.325   2.49  3.50     49.03896   3  0.955
        78   1194.1266    683.4697  20.2444   1.1205  22.0146   2.5311  19.8199   0.9238     1.125     0.999  19.37  8.17     49.28088   0  0.129
        79   1737.7563    704.4145  20.4561   1.2352  22.2446   2.8140  20.1865   1.0950     1.084     0.828 -58.27  8.16     49.32062   0  0.487
        80   6524.4673    705.2755  19.6942   0.8698  21.1139   1.6718  19.6075   0.8373     1.917     1.372 -26.51  7.62     48.99623   0  0.008
        81   7953.2627    774.1454  15.0427   0.1021  15.0506   0.1024  15.0255   0.1013     5.514     3.369 -88.01  3.50     49.04204   3  0.302
        82   5144.2378    712.4240  19.0589   0.6490  19.5653   0.8193  19.0599   0.6501     3.262     2.373  25.68  5.02     49.05462   0  0.033
        83    450.3194    724.0437  18.7435   0.5613  19.5365   0.8085  18.6668   0.5422     3.620     2.499  19.42  5.95     49.25607   0  0.000
        84   7962.4160    783.6885  16.1513   0.1701  16.2726   0.1798  16.1085   0.1668     5.495     2.747 -83.03  3.50     49.03981   3  0.056
        85   2244.8796    765.6364  17.3228   0.2917  17.5274   0.3205  17.2372   0.2805     5.772     3.414   2.63  4.50     49.29467   0  0.026
        86   5770.2510    755.3563  20.0397   1.0197  21.1044   1.6645  19.8557   0.9393     1.673     1.389  36.92  6.60     49.03944   0  0.009
        87   1627.4539    761.7272  19.7617   0.8971  20.6450   1.3470  19.4959   0.7952     1.882     1.487  81.91  6.43     49.28816   0  0.154
        88   3984.3943    834.0500  15.0543   0.1026  15.0697   0.1033  15.0348   0.1017     6.233     4.014  83.67  3.50     49.23254   3  0.027
        89   3996.6846    848.7739  16.0141   0.1597  16.0615   0.1632  15.9650   0.1561     7.400     2.931 -80.28  3.50     49.23868   3  0.029
        90   4565.9829    775.5193  20.0271   1.0138  21.3388   1.8542  19.6918   0.8706     1.489     1.245  89.69  7.61     49.09522   0  0.503
        91   6391.7061    788.1980  19.3244   0.7335  20.1017   1.0488  19.1528   0.6785     2.762     1.635  48.89  6.25     49.01403   0  0.002
        92   4930.7158    795.4963  20.5510   1.2905  22.0427   2.5641  20.1495   1.0763     1.036     0.999  82.76  7.77     49.05554   0  0.641
        93   3644.8328    795.7078  19.6421   0.8490  20.1193   1.0574  19.4670   0.7846     2.771     1.591  36.53  4.73     49.22588   0  0.004
        94    780.5785    848.3523  20.1401   1.0680  21.6253   2.1157  19.7551   0.8965     1.522     1.013 -81.39  7.80     49.26162   0  0.086
        95   6762.1016    878.5850  18.5096   0.5039  18.5988   0.5249  18.4021   0.4798     4.207     2.230  75.67  3.77     48.98067   0  0.094
        96   6243.4995    878.4698  20.3639   1.1838  20.7297   1.4006  19.7506   0.8946     1.409     0.973  89.90  6.71     49.02296   0  0.504
        97   6414.3677    869.0162  20.6790   1.3689  21.9321   2.4367  20.9835   1.5875     1.241     0.969  63.98  7.20     49.03135   0  0.541
        98    470.9247    905.8060  20.3224   1.1615  21.7428   2.2333  20.0136   1.0106     1.196     1.191 -26.14  7.38     49.24607   0  0.438
        99   7938.7871    939.1426  18.9831   0.6269  19.9332   0.9706  18.9349   0.6136     3.438     2.134  25.53  6.43      49.0143   0  0.000
       100   5250.9575   1014.7330  14.9664   0.0985  14.9745   0.0989  14.9475   0.0977     5.432     3.713  81.23  3.50     49.09592   3  0.035
       101   3628.8811   1115.6682  14.3712   0.0749  14.4707   0.0784  14.6532   0.0853    16.020    12.328  57.34  3.91     49.51524   0  0.028
       102   5263.5220   1028.2258  16.4858   0.1984  16.5403   0.2034  16.4113   0.1917     6.921     2.755 -80.82  3.50     49.09911   3  0.029
       103   8369.4111   1110.6877  14.5829   0.0826  14.5847   0.0827  14.5722   0.0822     8.151     4.930  57.95  3.50     49.03094   0  0.028
       104   2172.0754    983.1752  19.5403   0.8102  20.6471   1.3484  19.3132   0.7307     2.104     1.530  56.74  6.90     49.25416   0  0.002
       105   6274.2476    990.2960  19.5458   0.8123  20.4250   1.2173  19.6097   0.8382     2.686     1.385  57.00  6.43     49.02818   0  0.006
       106   5143.5679   1062.1176  19.9447   0.9760  20.6604   1.3566  19.5320   0.8085     1.911     1.357  67.33  6.00     49.10319   0  0.521
       107   2316.9602   1067.0519  19.9907   0.9970  21.0068   1.5913  19.6803   0.8660     1.762     1.344  82.73  6.62     49.24764   0  0.114
       108   7885.8359   1068.1650  19.7500   0.8923  21.7883   2.2806  18.9435   0.6160     1.290     1.107  45.16  8.52     49.04793   0  0.096
       109   2070.9751   1143.7365  16.1488   0.1699  16.3744   0.1885  16.1804   0.1724     7.528     5.922   4.64  4.63     49.24963   0  0.027
       110    400.1288   1092.0261  18.8437   0.5879  19.6061   0.8348  18.5472   0.5131     4.613     1.796  46.40  6.13     49.25215   0  0.003
       111   1678.3983   1090.2703  19.9695   0.9873  21.0562   1.6279  19.7917   0.9118     1.832     1.340  59.75  6.65     49.23678   0  0.007
       112   3698.6570   1105.1296  19.4862   0.7903  20.1286   1.0620  18.9277   0.6115     2.949     1.246  73.89  7.06     49.43116   2  0.045
       113   7181.1899   1110.8928  19.9892   0.9963  21.5237   2.0190  19.4767   0.7881     1.437     1.140  65.86  7.88       49.079   0  0.072
       114   2305.7317   1146.0449  18.0815   0.4138  18.3284   0.4635  18.0222   0.4027     5.358     2.750   5.83  4.41     49.27301   0  0.021
       115   7111.2134   1138.5148  19.4950   0.7935  20.4701   1.2428  19.1710   0.6843     2.024     1.629  69.58  6.76     49.07365   0  0.153
       116   4985.3320   1144.4513  19.4252   0.7683  21.4556   1.9566  18.9797   0.6264     1.663     1.278  56.86  8.54     49.14091   0  0.272
       117   7514.8179   1211.6261  14.9043   0.0958  14.8888   0.0951  14.8710   0.0943     5.329     4.674  78.52  3.50     49.07029   3  0.030
       118   8499.5039   1632.0256  12.6449   0.0338  11.3855   0.0189  15.3126   0.1156   483.685    18.031 -89.64  3.50     34.43398  56  0.002
       119   7734.0190   1181.0282  19.9421   0.9749  21.0387   1.6148  19.3613   0.7472     1.593     1.428  32.82  6.91     49.06722   0  0.114
       120   7526.1357   1222.9504  16.4431   0.1945  16.6217   0.2112  16.3851   0.1894     6.002     2.969 -81.82  3.50      49.0695   3  0.029
       121   5881.5610   1207.8110  19.7718   0.9013  20.7597   1.4202  19.2440   0.7077     1.986     1.418  66.74  6.68      49.1072   0  0.133
       122   2842.9963   1226.4778  20.3584   1.1809  21.8322   2.3273  19.9623   0.9868     1.343     0.980  24.53  7.49     49.22518   0  0.178
       123   2281.9954   1232.5227  20.4413   1.2268  22.1416   2.6835  19.7189   0.8816     1.090     0.802 -89.90  8.17     49.27332   0  0.608
       124    250.0180   1233.0354  20.6228   1.3338  22.0829   2.6120  20.4030   1.2109     1.297     0.726  75.36  7.72     49.26107   0  0.639
       125   2176.3433   1248.8512  19.6075   0.8356  20.9231   1.5311  19.0777   0.6554     1.701     1.449  82.38  7.46     49.23915   0  0.181
       126   5334.7329   1271.1764  18.8295   0.5840  19.6950   0.8697  18.7416   0.5612     3.131     2.267  53.96  6.42     49.09377   0  0.003
