#   1 NUMBER                 Running object number                                     
#   2 X_IMAGE                Object position along x                                    [pixel]
#   3 Y_IMAGE                Object position along y                                    [pixel]
#   4 MAG_AUTO               Kron-like elliptical aperture magnitude                    [mag]
#   5 MAGERR_AUTO            RMS error for AUTO magnitude                               [mag]
#   6 MAG_ISO                Isophotal magnitude                                        [mag]
#   7 MAGERR_ISO             RMS error for isophotal magnitude                          [mag]
#   8 MAG_APER               Fixed aperture magnitude vector                            [mag]
#   9 MAGERR_APER            RMS error vector for fixed aperture mag.                   [mag]
#  10 A_IMAGE                Profile RMS along major axis                               [pixel]
#  11 B_IMAGE                Profile RMS along minor axis                               [pixel]
#  12 THETA_IMAGE            Position angle (CCW/x)                                     [deg]
#  13 KRON_RADIUS            Kron apertures in units of A or B                         
#  14 BACKGROUND             Background at centroid position                            [count]
#  15 FLAGS                  Extraction flags                                          
#  16 CLASS_STAR             S/G classifier output                                     
         1   8470.2266     48.4904  16.1117   0.1011  15.3495   0.0711  15.5838   0.0792    17.001    13.091  24.06  3.50     4.814051  18  0.000
         2   8498.5625     10.9887  16.2710   0.1087  16.2594   0.1081  16.3534   0.1129    17.020     7.224   3.99  3.50    -3.187414  27  0.000
         3    692.4316     62.6567  15.5178   0.0768  15.8300   0.0887  15.6410   0.0813    10.880     7.343  -4.56  4.00     6.608634   3  0.484
         4    822.9484     56.7379  14.0717   0.0395  14.0351   0.0388  13.9965   0.0381     5.604     3.441 -33.55  3.50     8.168417   3  0.992
         5    682.7743     40.5618  99.0000  99.0000  12.6941   0.0209  15.7793   0.0866   314.362    13.197  -2.45  0.00     1.807139  19  0.000
         6   4611.5933     43.1410  13.6968   0.0332  13.6711   0.0328  13.6559   0.0326     5.083     4.464 -77.98  3.50     14.06503   0  0.950
         7   3200.5132     38.4949  17.0888   0.1583  17.1049   0.1595  17.0513   0.1557     2.461     2.209 -31.41  3.50     13.81266   0  0.983
         8    414.7292     10.6167  99.0000  99.0000  13.4684   0.0299  16.3817   0.1143   235.816     6.534   0.03  0.00    -4.747151  24  0.000
         9   5581.2637     19.7971  18.0791   0.2498  18.1159   0.2541  99.0000  99.0000     2.307     2.077 -25.58  3.50     13.83138  16  0.979
        10   4990.6729     20.7453  19.3451   0.4482  20.5039   0.7633  99.0000  99.0000     2.051     1.855  34.68  7.17     13.82455  16  0.001
        11   3598.5173     21.9942  20.7995   0.8754  21.8074   1.3913  20.7997   0.8923     1.086     0.957 -39.60  6.44     13.81053  16  0.495
        12   3030.1414      4.9087  21.1986   1.0513  21.8126   1.3946  99.0000  99.0000     1.308     0.778   6.43  3.50     13.82291  16  0.572
        13   2186.5247     55.2246  16.3836   0.1144  16.3906   0.1148  16.3453   0.1125     2.571     2.307 -39.89  3.50     14.23678   0  0.984
        14   1391.7205     40.8766  19.9502   0.5921  21.2703   1.0864  99.0000  99.0000     1.478     1.275  -7.99  7.44     14.56227   0  0.404
        15   7524.1509     44.7365  18.8707   0.3601  19.5543   0.4929  18.4858   0.3020     2.672     2.317 -39.86  5.99     13.71739   0  0.004
        16   1015.7195     64.7935  18.0312   0.2447  19.0039   0.3826  17.9067   0.2311     3.655     3.321  14.23  6.81      13.9422   0  0.000
        17   3659.9233     62.2594  19.7923   0.5502  19.9734   0.5978  19.6943   0.5297     1.883     1.645 -19.54  4.05     13.84762   0  0.895
        18   2223.0674     63.9709  19.6643   0.5186  19.8532   0.5656  19.4568   0.4741     1.948     1.676 -24.07  3.98     14.19672   0  0.906
        19   1294.1903     67.7197  20.0137   0.6096  20.5885   0.7936  18.7942   0.3484     1.677     1.466 -23.89  5.83     14.41805   0  0.682
        20   2540.5601    102.0956  14.0628   0.0393  14.0528   0.0391  14.0377   0.0388     2.743     2.494 -38.71  3.50     14.01026   0  0.999
        21   4738.6943     69.6716  19.5052   0.4819  19.6346   0.5114  19.4999   0.4837     2.036     1.749 -45.38  3.53     13.85696   0  0.891
        22   3550.5232    154.7966  13.6420   0.0324  13.6190   0.0320  13.6030   0.0318     4.553     4.099 -71.02  3.50     13.94936   0  0.928
        23   6063.1074     98.2383  15.4915   0.0759  15.4861   0.0757  15.4552   0.0746     2.658     2.381 -31.55  3.50     13.82308   0  0.985
        24   4178.7925     80.2078  20.1873   0.6600  20.4866   0.7572  19.8071   0.5584     1.690     1.443 -40.57  4.03     13.79058   0  0.644
        25   5463.5283     80.5208  21.0371   0.9766  21.8426   1.4140  20.9476   0.9593     1.150     0.865 -43.22  5.81     13.84156   0  0.573
        26    489.6498     88.3936  19.1181   0.4036  20.6718   0.8247  19.6101   0.5093     1.968     1.652 -18.45  7.86     12.00508   1  0.002
        27    564.9640     94.0152  19.0679   0.3942  19.5308   0.4875  21.3010   1.1392     2.132     1.834 -41.05  5.76     13.34458   0  0.789
        28   1148.5687     93.8978  20.1717   0.6557  21.8469   1.4169  19.1932   0.4194     1.268     0.999 -74.05  7.98     14.32479   0  0.094
        29   4465.6011    103.7404  17.5372   0.1946  17.5578   0.1965  17.5081   0.1922     2.388     2.161 -39.16  3.50     13.83696   0  0.981
        30   3734.6833    132.4811  14.2803   0.0434  14.2715   0.0433  14.2565   0.0430     2.691     2.462 -36.51  3.50     13.85977   0  0.998
        31   1921.9240    106.3792  18.8845   0.3621  18.9789   0.3781  18.6481   0.3256     2.147     1.953 -34.61  3.72     14.50443   0  0.942
        32   6857.9131    112.8144  20.0493   0.6193  20.2977   0.6941  19.5065   0.4852     1.729     1.579 -42.02  4.16     13.82567   0  0.818
        33    492.7717    136.6606  16.4932   0.1203  16.4963   0.1205  16.7283   0.1342     2.471     2.243 -45.33  3.50     13.96519   0  0.986
        34   4305.8042    126.7414  18.9357   0.3707  19.0073   0.3831  99.0000  99.0000     2.183     1.933 -46.46  3.50     13.79115   0  0.954
        35   6533.3301    139.8784  20.6958   0.8348  21.7682   1.3664  20.1867   0.6675     1.144     1.053 -29.28  6.69      13.8162   0  0.103
        36   2014.6952    141.6452  20.3261   0.7036  20.7049   0.8373  19.7027   0.5318     1.574     1.384 -20.17  4.50     14.36959   0  0.407
        37   5636.3765    170.5368  14.9213   0.0583  14.9158   0.0582  14.8951   0.0577     2.606     2.403 -38.29  3.50     13.83422   0  0.991
        38   8108.3984    156.4132  20.6955   0.8346  21.8987   1.4511  20.9414   0.9565     1.133     0.977 -44.94  7.06      13.8563   0  0.483
        39   2272.2000    180.3836  15.0646   0.0623  15.0610   0.0622  15.0414   0.0617     2.638     2.411 -38.73  3.50     14.14607   0  0.989
        40   2951.7480    164.3155  20.3297   0.7048  20.6676   0.8230  21.1415   1.0538     1.681     1.362 -25.75  4.51       13.871   0  0.361
        41   5799.6074    188.7609  20.6740   0.8262  21.3580   1.1312  20.5763   0.8029     1.304     1.156 -16.47  5.56     13.83363   0  0.540
        42   2622.9741    198.7870  16.9441   0.1481  16.9587   0.1491  16.9292   0.1472     2.464     2.245 -33.29  3.50     13.97845   0  0.982
        43   8493.7344    200.9861  99.0000  99.0000  21.7789   1.3733  99.0000  99.0000     3.615     0.482  89.55  0.00     10.85798   2  0.074
        44   2262.6353    211.0071  18.7320   0.3375  18.7920   0.3469  18.5844   0.3161     2.193     2.001 -40.22  3.50     14.14248   0  0.973
        45   6022.6606    249.1915  14.4045   0.0460  14.3955   0.0458  14.3783   0.0454     2.639     2.451 -38.28  3.50     13.83097   0  0.998
        46   1105.3893    233.5870  19.4381   0.4673  19.5798   0.4987  19.2846   0.4376     1.970     1.778 -32.34  3.86     14.23401   0  0.908
        47   8064.6479    238.1666  19.5428   0.4909  20.9818   0.9513  19.3715   0.4556     2.102     1.324 -13.99  7.66     13.87829   0  0.001
        48   8495.0000    259.1600  18.7430   0.3393  20.8843   0.9096  99.0000  99.0000     4.880     0.289  90.00  9.59     10.67914  16  0.061
        49    492.7262    245.1183  18.6686   0.3278  18.7245   0.3363  18.7452   0.3406     2.189     1.999 -40.96  3.50     13.93334   0  0.971
        50   4466.1396    248.7405  20.1955   0.6626  20.5480   0.7789  19.9045   0.5846     1.684     1.447 -23.26  4.37     13.82349   0  0.759
        51   2621.0242    273.2524  18.6317   0.3224  18.9536   0.3737  18.5044   0.3047     2.704     2.334 -61.04  4.83     13.98887   0  0.017
        52     74.2592    297.6066  18.1437   0.2576  18.8735   0.3602  17.9309   0.2337     3.166     2.873  -4.47  6.29     13.73614   0  0.006
        53    630.5792    289.3690  19.6594   0.5178  20.2041   0.6649  19.6707   0.5239     1.969     1.810 -35.67  5.44     13.96649   0  0.066
        54   7608.6128    291.5945  20.9383   0.9332  21.7851   1.3770  21.0087   0.9881     1.123     0.966 -44.37  5.82     13.86746   0  0.598
        55   7456.8608    325.2253  17.0431   0.1550  17.0579   0.1561  17.0096   0.1527     2.429     2.207 -42.61  3.50     13.88488   0  0.983
        56   5376.6865    316.5560  18.7571   0.3414  18.8365   0.3541  18.7692   0.3444     2.163     1.941 -39.36  3.50     13.83498   0  0.968
        57     97.6380    325.3189  21.4106   1.1591  21.4566   1.1835  19.4298   0.4682     0.992     0.861 -49.04  3.64     13.84354   0  0.642
        58   5755.8608    355.4945  14.9880   0.0602  14.9829   0.0600  14.9626   0.0595     2.597     2.393 -39.46  3.50     13.83013   0  0.989
        59   2693.4565    334.6778  20.4498   0.7451  20.9809   0.9508  20.4879   0.7698     1.528     1.280 -13.08  5.00     13.99087   0  0.683
        60   6617.5879    346.8401  20.8863   0.9112  21.9685   1.4984  20.8579   0.9188     1.059     0.910 -14.10  6.53     13.83177   0  0.463
        61   1426.3806    349.7261  19.4859   0.4777  19.6331   0.5111  19.4802   0.4793     2.041     1.777 -40.05  3.64     14.31283   0  0.851
        62   6742.3750    350.6413  20.9431   0.9352  21.9137   1.4610  20.8904   0.9332     1.048     0.897 -42.96  6.18     13.81122   0  0.491
        63   2768.3540    437.8954  13.6813   0.0330  13.6640   0.0327  13.6498   0.0325     3.802     3.289 -73.36  3.50     14.00724   0  1.000
        64   6326.9136    355.0616  19.6934   0.5260  20.5409   0.7764  19.3489   0.4509     1.811     1.659 -25.28  6.41     13.84048   0  0.011
        65   2079.8186    357.2528  20.3448   0.7097  20.6898   0.8315  20.2501   0.6878     1.677     1.358 -25.31  4.34     14.13058   0  0.683
        66   3813.7329    359.0028  18.9579   0.3745  19.0197   0.3853  18.9132   0.3682     2.163     1.914 -33.93  3.50     13.84642   0  0.969
        67   5279.4966    372.7227  19.6251   0.5098  21.3617   1.1332  19.2881   0.4383     1.739     1.159 -44.43  8.09     13.82391   0  0.001
        68   2814.8994    386.4357  16.3719   0.1138  16.3790   0.1142  16.3341   0.1119     2.504     2.298 -35.66  3.50     13.98202   0  0.984
        69   5584.0811    391.1017  18.9152   0.3672  18.9877   0.3797  18.8426   0.3563     2.130     1.903 -33.81  3.50     13.82777   0  0.974
        70   6902.7505    410.3379  20.5015   0.7633  21.9058   1.4558  20.5346   0.7871     1.167     0.970 -84.02  7.48     13.81897   0  0.174
        71   5042.0962    484.2281  13.7302   0.0337  13.7185   0.0335  13.7043   0.0333     3.019     2.810 -40.60  3.50        13.85   0  1.000
        72   7391.6909    449.1475  19.7686   0.5442  19.9913   0.6027  19.8863   0.5796     1.835     1.665 -32.65  4.22     13.87711   0  0.896
        73    191.7638    457.8485  18.9981   0.3818  19.5516   0.4923  18.9467   0.3740     2.567     2.198 -13.76  5.51     13.84183   0  0.033
        74   4153.2310    459.2192  20.8869   0.9115  21.7041   1.3267  20.4563   0.7584     1.139     1.092 -46.01  5.79      13.8448   0  0.510
        75    117.0123    463.2176  19.5421   0.4907  21.0741   0.9926  19.5013   0.4841     1.968     1.395 -29.42  7.73     13.84154   0  0.002
        76   2324.2180    474.8900  18.8816   0.3617  19.2662   0.4316  18.8052   0.3502     2.472     2.202 -76.35  5.01     14.05676   0  0.021
        77   5920.6626    480.2173  19.2499   0.4285  19.3630   0.4513  19.1323   0.4076     2.186     1.786 -27.89  3.76     13.81099   3  0.966
        78   2703.3171    480.0787  21.0101   0.9646  22.0351   1.5451  21.1601   1.0634     1.051     0.855 -34.28  6.38     14.01096   0  0.537
        79   5912.1221    481.4198  19.3472   0.4481  19.4829   0.4769  19.2344   0.4275     2.091     1.774 -36.85  3.89     13.80795   3  0.953
        80   2239.0891    489.9080  20.2457   0.6785  21.4594   1.1853  20.1329   0.6508     1.335     1.209 -48.29  7.11     14.06128   0  0.006
        81   5435.1548    500.7012  19.9353   0.5877  20.1919   0.6611  19.8316   0.5649     1.790     1.568 -26.73  4.37     13.82118   0  0.811
        82   8083.9131    549.2469  17.0238   0.1538  17.4627   0.1881  17.0643   0.1567     8.090     5.934 -17.17  4.85     13.88907   0  0.000
        83   2975.2317    510.2578  19.2621   0.4311  19.6420   0.5132  19.1178   0.4049     3.100     1.841 -34.97  4.68      13.9445   0  0.000
        84    900.1862    521.1915  20.7141   0.8416  21.5103   1.2133  20.5936   0.8096     1.268     1.082 -42.71  5.74     13.95721   0  0.623
        85   2337.0647    557.4072  14.2733   0.0433  14.2647   0.0431  14.2499   0.0428     2.685     2.478 -37.78  3.50     14.04157   0  0.999
        86   2971.5562    549.9495  16.6658   0.1303  16.6751   0.1309  16.6379   0.1287     2.470     2.245 -36.23  3.50     13.95345   0  0.983
        87   4953.1904    559.1302  20.8360   0.8901  21.5104   1.2134  21.1970   1.0827     1.254     1.076 -41.25  5.14      13.8513   0  0.600
        88   4408.9209    565.3352  17.7129   0.2111  17.7407   0.2138  17.6634   0.2065     2.368     2.156 -37.19  3.50     13.86042   0  0.981
        89   7757.7676    586.3898  17.2009   0.1667  17.2174   0.1680  17.1636   0.1640     2.420     2.181 -43.38  3.50     13.89376   0  0.983
        90   6912.9448    615.1995  14.4699   0.0474  14.4607   0.0472  14.4440   0.0468     2.642     2.429 -41.80  3.50     13.86578   0  0.995
        91   8303.3799    595.6071  20.8062   0.8783  22.0410   1.5493  20.6311   0.8242     1.056     0.900 -45.41  7.21     13.83331   0  0.363
        92   7103.0508    615.5267  16.7890   0.1379  16.8004   0.1386  16.7523   0.1357     2.440     2.222 -42.21  3.50     13.85888   0  0.983
        93   7178.0674    607.8895  20.4225   0.7357  20.9519   0.9382  20.5336   0.7868     1.523     1.229 -16.01  5.26     13.86077   0  0.601
        94   5238.8145    611.3784  19.8885   0.5751  20.0886   0.6304  19.8606   0.5726     1.796     1.643 -24.47  3.90     13.83246   0  0.904
        95   6507.4355    618.6462  20.3415   0.7091  21.2400   1.0714  20.0071   0.6134     1.466     1.235  34.15  6.39     13.81597   0  0.541
        96    441.5562    623.3954  20.2352   0.6749  20.6858   0.8300  20.0580   0.6283     1.560     1.384 -17.72  5.13     13.84567   0  0.749
        97   3289.8303    657.0118  18.2862   0.2752  19.1184   0.4033  18.2579   0.2718     4.601     2.805  33.73  6.08     13.91717   0  0.000
        98    332.7393    657.0465  18.3543   0.2838  18.7315   0.3374  18.3468   0.2832     3.741     3.152   9.63  4.70     13.83014   0  0.000
        99   2049.1865    652.1960  19.2489   0.4285  19.7748   0.5456  19.1120   0.4038     2.260     1.978   3.02  5.45     14.03077   0  0.037
       100   5804.9521    656.3429  20.2424   0.6773  20.8105   0.8791  19.9313   0.5920     1.706     1.269 -33.90  5.62     13.82439   0  0.688
       101   3024.0369    681.1266  15.8500   0.0895  15.8515   0.0896  15.8199   0.0883     2.555     2.333 -36.62  3.50     13.95083   0  0.985
       102   7619.3179    675.7269  17.3992   0.1827  17.4177   0.1842  17.3765   0.1809     2.359     2.140 -37.80  3.50     13.88983   0  0.983
       103    686.4868    673.9239  19.4809   0.4766  19.6008   0.5035  19.3522   0.4516     1.933     1.801 -53.42  3.54     13.89087   0  0.855
       104   4717.2227    682.8024  17.7274   0.2125  17.7556   0.2152  17.7137   0.2114     2.343     2.115 -37.18  3.50     13.85166   0  0.982
       105   5502.5786    691.6916  20.4993   0.7621  20.8900   0.9118  20.5103   0.7781     1.461     1.333 -24.97  4.52     13.82527   0  0.691
       106   6789.4351    692.6198  19.7875   0.5493  20.3825   0.7218  19.8953   0.5820     1.810     1.729 -64.32  5.67     13.83569   0  0.122
       107   6320.5845    694.9602  19.7360   0.5364  21.3950   1.1507  19.3568   0.4525     1.451     1.272  12.44  7.99     13.82493   0  0.017
       108   4546.8550    704.6531  19.7023   0.5281  21.5796   1.2527  18.9553   0.3755     1.363     1.165 -37.19  8.26     13.88359   0  0.028
       109   6974.6304    716.8682  19.7921   0.5500  20.0018   0.6057  19.8100   0.5592     1.836     1.570 -26.84  3.83     13.86285   0  0.923
       110   2297.1731    720.1102  20.4311   0.7386  20.9762   0.9487  20.2907   0.7011     1.524     1.282 -23.36  5.00     13.99266   0  0.643
       111   2895.2002    732.1097  19.1968   0.4181  19.2887   0.4361  19.1527   0.4115     2.036     1.870 -29.06  3.50      13.9627   0  0.960
       112   7940.3760    740.4770  17.4562   0.1875  17.4762   0.1893  17.4219   0.1848     2.355     2.126 -38.08  3.50     13.93425   0  0.983
       113   4383.9893    755.5673  19.0241   0.3863  19.4126   0.4617  18.8910   0.3644     3.223     1.898 -44.97  4.67     13.89026   0  0.006
       114   1681.3323    754.3925  18.9687   0.3764  19.0578   0.3921  18.9430   0.3733     2.182     1.962 -38.38  3.58     14.02136   0  0.941
       115   7001.1660    757.3118  18.6611   0.3267  18.7228   0.3360  18.6630   0.3279     2.166     1.956 -29.64  3.50     13.85868   0  0.975
       116   2679.1477    771.2677  20.1777   0.6571  20.4590   0.7476  20.1337   0.6511     1.734     1.402 -35.66  4.13     13.98081   0  0.521
       117    884.7582    793.6624  20.6450   0.8152  21.2952   1.0989  20.4182   0.7448     1.394     1.135 -25.48  5.40     13.89404   0  0.686
       118   7898.4478    796.6162  18.4610   0.2982  19.9549   0.5928  18.3507   0.2837     3.362     2.098  27.04  7.57     13.93966   0  0.002
       119    652.0121    799.4337  20.3521   0.7125  21.6538   1.2963  20.3510   0.7214     1.410     0.958 -12.96  7.36     13.86088   0  0.402
       120   5469.9883    807.9390  19.9708   0.5973  20.2097   0.6665  19.8072   0.5585     1.741     1.523 -38.50  4.32     13.81598   0  0.893
       121   5538.4214    813.3049  19.7310   0.5350  20.1534   0.6495  19.6454   0.5178     2.005     1.724 -39.40  4.99     13.82681   0  0.115
       122   2688.0808    824.4990  19.6759   0.5217  20.2289   0.6725  19.5987   0.5066     2.018     1.728 -35.21  5.31     13.98817   0  0.081
       123   2067.1492    833.6320  18.3669   0.2854  18.7559   0.3412  18.2912   0.2760     4.354     2.534   9.43  4.96     13.99365   0  0.000
       124   5959.3594    829.3732  19.2453   0.4275  19.3624   0.4512  19.3252   0.4459     2.020     1.820 -27.13  3.60     13.82351   0  0.958
       125    238.0564    830.3168  20.2500   0.6798  21.3246   1.1139  19.8399   0.5671     1.568     1.118 -61.51  6.83     13.82659   0  0.006
       126   3783.8113    851.8790  20.5503   0.7806  21.5914   1.2595  19.9648   0.6013     1.273     1.085 -46.13  6.63     13.90901   0  0.641
