#   1 NUMBER                 Running object number                                     
#   2 X_IMAGE                Object position along x                                    [pixel]
#   3 Y_IMAGE                Object position along y                                    [pixel]
#   4 MAG_AUTO               Kron-like elliptical aperture magnitude                    [mag]
#   5 MAGERR_AUTO            RMS error for AUTO magnitude                               [mag]
#   6 MAG_ISO                Isophotal magnitude                                        [mag]
#   7 MAGERR_ISO             RMS error for isophotal magnitude                          [mag]
#   8 MAG_APER               Fixed aperture magnitude vector                            [mag]
#   9 MAGERR_APER            RMS error vector for fixed aperture mag.                   [mag]
#  10 A_IMAGE                Profile RMS along major axis                               [pixel]
#  11 B_IMAGE                Profile RMS along minor axis                               [pixel]
#  12 THETA_IMAGE            Position angle (CCW/x)                                     [deg]
#  13 KRON_RADIUS            Kron apertures in units of A or B                         
#  14 BACKGROUND             Background at centroid position                            [count]
#  15 FLAGS                  Extraction flags                                          
#  16 CLASS_STAR             S/G classifier output                                     
         1   1460.9092     49.1157  14.4917   0.0478  13.0830   0.0250  14.1061   0.0400    31.498    29.039 -10.05  3.50     28.82207  16  0.029
         2   8470.3105     49.5000  16.1843   0.1042  15.3516   0.0709  15.5904   0.0792    17.282    12.927  23.98  3.50     4.992175  18  0.000
         3   8498.6875     11.2185  16.2770   0.1087  16.2615   0.1079  16.3541   0.1126    16.987     7.235   4.07  3.50    -3.191164  27  0.000
         4    433.9550     55.5740  12.8914   0.0229  12.7007   0.0209  15.6045   0.0797   209.743    11.440  -0.89  3.50     5.092211  17  0.000
         5   3242.0396     54.5054  13.7697   0.0342  13.7457   0.0339  13.7294   0.0336     5.039     4.506 -80.31  3.50      14.1187   0  0.787
         6   1574.2616     53.9290  17.7455   0.2139  19.5632   0.4936  17.5890   0.1990     4.308     2.197  84.35  8.57     20.25829   2  0.000
         7   1578.6399     33.0041  99.0000  99.0000  18.9826   0.3777  99.0000  99.0000     7.820     3.274 -86.41  0.00     20.74165  18  0.000
         8   6821.0137     33.7864  17.4545   0.1869  17.9128   0.2308  17.1906   0.1656     7.186     4.146 -81.47  3.50     13.91747  16  0.000
         9   6226.5244     24.4630  21.4809   1.1939  21.8056   1.3860  99.0000  99.0000     0.891     0.888 -68.16  3.50     13.90901  16  0.657
        10    366.0053     10.5697  99.0000  99.0000  13.5975   0.0316  16.3794   0.1139   208.190     6.509  -0.02  0.00    -4.787626  25  0.000
        11   2887.0762      9.7077  20.5567   0.7800  20.8991   0.9130  99.0000  99.0000     1.392     1.208 -77.38  3.50     13.92916  16  0.576
        12   8310.3545     54.0601  18.7696   0.3430  19.3022   0.4376  18.2930   0.2755     4.451     2.140  72.88  6.72     13.52222   0  0.000
        13   4595.1841     31.2024  19.8490   0.5634  20.3670   0.7146  19.8059   0.5566     2.206     1.569 -13.29  5.23     13.90044   0  0.002
        14   7962.0361     41.5446  18.4725   0.2989  19.4189   0.4618  99.0000  99.0000     3.225     2.253 -38.81  6.79     13.63676   0  0.000
        15   2336.7400     38.4613  20.9605   0.9401  21.7832   1.3718  21.0160   0.9888     1.025     0.979 -79.84  5.98     14.38348   0  0.484
        16   7664.8589     91.7432  19.8621   0.5665  20.0172   0.6082  19.6872   0.5265     1.778     1.532 -75.00  4.03     13.90186   0  0.903
        17   3148.0779    119.0270  15.1290   0.0640  15.1219   0.0638  15.0963   0.0631     2.470     2.186 -75.01  3.50     13.98471   0  0.992
        18   2780.5928     98.4498  21.2204   1.0588  21.2230   1.0598  99.0000  99.0000     1.098     0.834 -44.60  3.50     13.99213   0  0.715
        19   7027.5117     99.6646  20.0968   0.6315  20.7196   0.8406  19.9929   0.6076     1.609     1.456 -88.65  5.57     13.91857   0  0.171
        20   3282.5015    103.0147  18.2294   0.2670  18.2690   0.2719  18.0118   0.2419     2.173     1.908 -76.94  3.50     14.00175   0  0.979
        21   8492.2549    118.4723  20.0739   0.6245  21.2571   1.0768  99.0000  99.0000     3.543     0.721 -89.28  3.50     10.97127   0  0.008
        22   6461.5635    113.1371  20.5816   0.7891  20.8124   0.8773  20.5645   0.7961     1.364     1.339 -55.06  3.79     13.89165   0  0.589
        23   3716.4507    114.0438  19.4237   0.4628  19.4890   0.4769  19.3161   0.4428     1.906     1.647 -73.95  3.50     13.89097   0  0.954
        24   4929.1562    169.8052  14.0047   0.0381  13.9880   0.0379  13.9665   0.0375     3.566     3.156 -80.12  3.50     13.94184   0  1.000
        25    277.4730    125.7657  19.9752   0.5967  19.9582   0.5919  99.0000  99.0000     1.695     1.372 -86.91  3.50     14.04571   0  0.902
        26   4707.7070    133.3528  19.2613   0.4297  19.6052   0.5031  19.2851   0.4364     2.354     2.255  44.40  4.63     13.90573   0  0.009
        27   3998.3469    174.5833  13.9545   0.0373  13.9411   0.0370  13.9265   0.0368     2.604     2.341 -76.11  3.50     13.89124   0  1.000
        28   7272.0913    138.6628  21.1056   1.0043  21.1242   1.0127  20.9132   0.9408     1.123     0.911 -30.38  3.50     13.92642   0  0.707
        29   2436.5950    157.4872  17.4785   0.1889  17.4972   0.1905  17.4610   0.1876     2.250     1.966 -74.61  3.50     14.19341   0  0.983
        30   3813.7058    153.0600  19.7028   0.5269  21.2710   1.0837  19.4896   0.4801     1.699     1.284  79.87  7.93     13.88558   0  0.003
        31   4735.1494    153.9495  20.5080   0.7626  20.5851   0.7900  20.4722   0.7619     1.130     1.078 -54.32  3.50     13.90537   0  0.802
        32   7405.5747    170.1166  17.3171   0.1754  17.3331   0.1767  17.2716   0.1719     2.250     1.951 -79.47  3.50     13.93845   0  0.983
        33   1433.0919    166.4576  19.6209   0.5072  21.0354   0.9722  17.8002   0.2194     1.509     1.245 -79.16  7.64     19.20496   0  0.660
        34   5523.7339    170.3021  18.5277   0.3063  18.5781   0.3135  18.4808   0.3005     2.048     1.788 -80.87  3.50     13.91541   0  0.974
        35   7945.7148    170.0269  19.1563   0.4092  19.2326   0.4237  19.1726   0.4142     1.941     1.655 -75.41  3.50     13.96234   0  0.962
        36   1173.0571    172.7688  20.6253   0.8054  21.0580   0.9823  20.3879   0.7321     1.415     1.157 -71.25  4.88     15.76886   0  0.572
        37   7130.3022    186.1112  20.8307   0.8851  21.2490   1.0726  20.6288   0.8209     1.277     1.093  75.41  4.36     13.92992   0  0.537
        38    304.7035    197.3925  20.0222   0.6100  20.3567   0.7112  18.9045   0.3657     1.674     1.427 -84.99  4.90     14.04246   0  0.832
        39   2966.3125    197.0889  20.0941   0.6308  21.9837   1.5047  19.9405   0.5928     1.918     0.604  64.31  8.62     13.95686   0  0.089
        40   6118.0049    198.9187  19.0601   0.3914  19.1268   0.4036  18.9600   0.3752     1.925     1.739 -83.35  3.50     13.89489   0  0.959
        41   1298.6978    200.7299  20.4187   0.7326  21.2795   1.0879  19.5705   0.4985     1.308     1.258 -84.44  6.27     16.34914   0  0.689
        42   6965.9917    207.0623  19.7862   0.5474  20.5665   0.7834  19.3962   0.4596     1.800     1.514 -46.23  6.24     13.91767   0  0.589
        43   7455.1772    218.4022  17.4953   0.1904  17.5108   0.1917  17.4408   0.1858     2.245     1.918 -78.89  3.50      13.9441   0  0.982
        44    986.1664    229.6280  17.4407   0.1857  17.4608   0.1874  17.3872   0.1813     2.288     1.956 -77.60  3.50     14.88464   0  0.982
        45   6425.6030    220.8656  19.4294   0.4640  19.4299   0.4640  19.3077   0.4410     1.740     1.121  -7.07  3.50     13.88714   0  0.916
        46   8465.2109    254.2442  15.7629   0.0857  15.7587   0.0856  15.8571   0.0895     2.289     2.008 -76.76  3.50     13.83077   0  0.984
        47   8124.0889    231.5746  20.6110   0.8004  21.5141   1.2120  20.2206   0.6764     1.232     1.117  61.82  6.39     13.94251   0  0.659
        48    787.8954    235.1082  20.4845   0.7551  21.3764   1.1375  20.0730   0.6309     1.311     1.203 -49.57  6.31     14.54015   0  0.243
        49   6729.6987    242.4545  18.9913   0.3795  19.4496   0.4684  18.9477   0.3731     3.696     1.866  43.75  4.89     13.90227   0  0.000
        50   8493.2734    261.2931  20.1604   0.6504  19.9156   0.5805  99.0000  99.0000     3.468     2.021 -87.18  3.50     11.21394   0  0.007
        51   7922.2041    243.4232  20.1639   0.6510  20.3858   0.7208  19.9890   0.6065     1.657     1.368 -79.17  3.98     13.97311   0  0.765
        52   7212.3296    244.3818  21.4544   1.1795  21.7097   1.3262  21.1504   1.0554     0.993     0.870  51.92  3.79     13.93822   0  0.696
        53   4484.4092    249.8731  20.5038   0.7615  20.8080   0.8755  20.1341   0.6493     1.460     1.270 -74.10  4.45      13.9497   0  0.555
        54   4472.0479    343.0182  13.8448   0.0354  13.8196   0.0350  13.8027   0.0348     5.282     4.594 -83.49  3.50     14.03717   0  0.930
        55   3850.7034    266.1255  18.4649   0.2976  18.5054   0.3031  18.4013   0.2896     2.067     1.820 -78.08  3.50     13.89793   0  0.975
        56   1291.6364    272.0942  17.5245   0.1930  17.5428   0.1946  17.4989   0.1909     2.269     1.948 -78.82  3.50       15.702   0  0.983
        57   7896.4385    276.0972  19.7208   0.5311  20.3073   0.6952  19.5108   0.4848     1.865     1.625 -27.32  5.74     13.97389   0  0.681
        58   1588.6005    311.4955  17.6082   0.2005  17.6321   0.2028  17.6078   0.2007     2.538     2.010 -61.60  3.50     15.69329   0  0.983
        59   7058.9878    306.8682  17.8019   0.2193  17.8248   0.2216  17.7330   0.2127     2.144     1.885 -80.57  3.50     13.93078   0  0.981
        60   2889.8311    305.7908  20.5048   0.7623  21.7280   1.3375  20.0050   0.6111     1.263     0.949  74.10  7.33     14.00856   0  0.282
        61   5441.2764    320.2727  18.0853   0.2498  18.1127   0.2530  18.0626   0.2476     2.124     1.850 -82.46  3.50     13.90869   0  0.978
        62   4850.6660    321.5490  19.3855   0.4552  20.5247   0.7685  19.3164   0.4428     2.097     1.708  68.66  7.08     13.92231   0  0.002
        63   3458.4795    322.7770  20.7818   0.8656  21.3493   1.1234  20.8056   0.8934     1.233     1.021 -89.04  5.33     13.97549   0  0.523
        64    683.1514    357.3835  14.1617   0.0410  14.1499   0.0408  14.1333   0.0405     2.585     2.270 -77.92  3.50     14.21716   0  0.996
        65   3060.6157    339.1221  17.0894   0.1579  17.1023   0.1589  17.0642   0.1562     2.250     1.987 -80.00  3.50     13.99266   0  0.984
        66   3410.8306    455.8433  13.9064   0.0365  13.8793   0.0360  13.8702   0.0359     6.305     4.338 -85.15  3.50      14.0864   0  0.141
        67   1251.9260    341.8856  20.6729   0.8235  21.4328   1.1675  20.8597   0.9169     1.252     1.139 -67.80  5.76     15.16183   0  0.668
        68   7384.1035    345.1094  19.0550   0.3908  19.6084   0.5039  18.9756   0.3779     2.545     2.047 -63.74  5.50     13.94419   0  0.114
        69   2046.6826    355.8087  16.3930   0.1146  16.3976   0.1148  16.3593   0.1129     2.392     2.078 -76.92  3.50     14.42136   0  0.984
        70    552.5355    363.3941  16.7905   0.1376  16.8003   0.1382  16.7589   0.1357     2.372     2.024 -77.23  3.50     14.13385   0  0.988
        71    875.7939    365.5662  18.5886   0.3153  19.1539   0.4087  18.5710   0.3133     3.253     3.138  70.70  5.25     14.42136   0  0.000
        72   3520.1589    362.8322  19.7952   0.5492  19.9409   0.5872  19.7228   0.5353     1.765     1.504 -72.58  3.77      13.9845   0  0.935
        73   2083.1753    364.5165  19.6869   0.5225  19.8270   0.5572  19.5286   0.4889     1.778     1.573 -86.11  3.72     14.36138   0  0.926
        74   1154.4155    368.5167  20.3170   0.6986  20.5682   0.7839  20.4593   0.7573     1.474     1.402 -84.12  4.18     14.85006   0  0.645
        75   4598.6948    370.1013  19.4828   0.4756  19.5866   0.4988  19.3853   0.4573     1.968     1.609 -69.96  3.69     13.95542   0  0.950
        76   2400.6963    402.6232  14.0660   0.0392  14.0536   0.0390  14.0389   0.0388     2.585     2.293 -76.54  3.50     14.17767   0  0.995
        77   4038.6062    381.0233  20.1564   0.6488  20.3892   0.7219  19.8785   0.5758     1.650     1.396 -80.18  4.21     13.91269   0  0.663
        78   5323.4922    381.0300  20.9831   0.9497  21.5778   1.2480  20.8716   0.9222     1.172     0.961 -87.70  5.11     13.91067   0  0.532
        79   5923.1279    398.6322  15.5058   0.0762  15.4978   0.0759  15.4642   0.0747     2.434     2.202 -67.01  3.50     13.90657   0  0.983
        80    349.5647    389.7336  21.0427   0.9762  21.6213   1.2733  20.4700   0.7612     1.189     0.961 -61.67  5.25     14.03503   0  0.649
        81    425.0283    394.9350  19.5101   0.4816  19.6078   0.5037  19.4627   0.4741     1.937     1.548 -81.25  3.58     14.05576   0  0.950
        82   1008.8589    394.6921  20.3087   0.6964  21.3143   1.1055  19.8854   0.5777     1.452     1.183  70.59  6.64     14.56436   0  0.356
        83   4325.6450    404.1636  17.5474   0.1950  17.5670   0.1968  17.4945   0.1905     2.243     1.963 -80.24  3.50     13.92831   0  0.982
        84   3594.7786    433.0259  14.2854   0.0434  14.2736   0.0432  14.2580   0.0429     2.531     2.254 -76.05  3.50     13.99868   0  0.997
        85   1782.0620    406.8602  18.9183   0.3667  18.9829   0.3777  18.9454   0.3727     1.999     1.747 -81.09  3.50     14.72296   0  0.966
        86   6717.8306    413.1123  20.0589   0.6202  20.2636   0.6813  19.4807   0.4781     1.680     1.423 -61.90  3.90     13.89755   0  0.752
        87    352.8589    437.1305  16.4752   0.1190  16.4788   0.1192  16.4527   0.1178     2.377     2.048 -80.10  3.50      14.0282   0  0.983
        88   4165.7334    427.0796  18.9219   0.3673  18.9916   0.3792  18.8458   0.3558     2.031     1.725 -77.83  3.50     13.92397   0  0.964
        89   6393.2368    440.4040  20.7422   0.8502  21.2794   1.0878  20.6044   0.8114     1.282     1.144 -77.03  5.53     13.89785   0  0.685
        90   1874.7311    442.3748  20.3120   0.6970  20.5993   0.7953  19.8264   0.5619     1.484     1.405 -80.11  4.34     14.50381   0  0.662
        91     56.9237    448.3111  19.8651   0.5676  22.0755   1.5697  18.7909   0.3469     1.472     0.756  84.52  8.82     13.80333   0  0.199
        92   5496.3770    470.8913  14.9393   0.0587  14.9315   0.0585  14.9116   0.0579     2.446     2.153 -78.03  3.50     13.90795   0  0.987
        93   7968.0020    457.1353  20.6200   0.8037  21.4056   1.1529  20.2726   0.6932     1.349     1.120 -53.06  5.89     13.97107   0  0.651
        94   2132.2781    480.8398  15.0766   0.0625  15.0700   0.0623  15.0479   0.0617     2.474     2.177 -77.63  3.50     14.25226   0  0.989
        95   8399.4912    458.5805  19.7522   0.5385  19.9058   0.5778  19.6748   0.5234     1.770     1.521 -86.43  3.97     13.93819   0  0.891
        96   7089.0786    462.8473  21.1437   1.0227  21.9271   1.4658  21.4291   1.2099     1.153     0.739 -80.67  5.65     13.93247   0  0.481
        97   2811.6570    464.9129  20.3403   0.7062  20.6296   0.8064  20.3763   0.7281     1.558     1.329 -72.30  4.53     14.04437   0  0.639
        98   5659.3130    489.1462  20.6317   0.8078  21.0227   0.9665  20.3646   0.7240     1.339     1.269 -68.21  4.88     13.90369   0  0.557
        99   2483.0261    499.2008  16.9667   0.1492  16.9754   0.1498  16.9440   0.1478     2.299     2.020 -80.03  3.50      14.1356   0  0.983
       100   3410.2944    511.2057  17.7464   0.2139  18.2374   0.2680  17.6618   0.2058     4.388     4.011   1.02  5.34     14.07204   0  0.000
       101   2122.6873    511.4538  18.7389   0.3376  18.7968   0.3467  18.5199   0.3060     2.026     1.773 -77.69  3.50     14.25391   0  0.971
       102   5882.6826    549.4852  14.4295   0.0464  14.4182   0.0462  14.4026   0.0458     2.470     2.197 -78.80  3.50     13.90902   0  0.998
       103    965.4180    534.0524  19.4816   0.4753  19.5803   0.4974  19.4055   0.4616     1.925     1.662 -82.97  3.50     14.31448   0  0.951
       104   7923.9121    538.6663  19.5201   0.4844  20.9546   0.9368  19.2356   0.4265     1.965     1.439  -5.90  7.61     13.96696   0  0.001
       105    352.7899    545.5635  18.6738   0.3276  18.7261   0.3356  18.5930   0.3165     2.050     1.774 -85.46  3.50     13.98263   0  0.973
       106   4326.0303    549.0187  20.1906   0.6590  20.4415   0.7395  19.8383   0.5651     1.644     1.391 -71.63  3.89     13.93428   0  0.767
       107   2481.0015    573.5294  18.6629   0.3261  18.9436   0.3710  18.5393   0.3087     2.685     2.183 -71.17  4.82      14.1342   0  0.288
       108    490.4150    589.5687  19.7527   0.5389  20.2027   0.6625  19.5711   0.4987     1.842     1.773 -75.86  5.12     14.02419   0  0.416
       109   7468.4028    592.0665  20.8926   0.9110  21.4955   1.2016  20.9974   0.9799     1.234     0.967 -74.83  5.37     13.93692   0  0.514
       110   7316.8247    625.5604  17.0609   0.1559  17.0722   0.1567  17.0372   0.1543     2.267     1.957 -78.56  3.50     13.95111   0  0.983
       111   5236.7192    616.8746  18.7869   0.3451  18.8404   0.3537  18.6984   0.3323     2.030     1.779 -76.03  3.50     13.90906   0  0.970
       112   6213.5850    623.6451  20.0400   0.6153  21.5410   1.2272  19.8203   0.5603     1.524     1.014  83.16  7.77     13.91005   0  0.003
       113   5615.8481    655.7766  15.0085   0.0606  15.0004   0.0603  14.9808   0.0598     2.432     2.154 -77.96  3.50     13.91699   0  0.993
       114   2553.2012    635.3120  20.4435   0.7406  20.8198   0.8802  20.5175   0.7785     1.462     1.273 -71.42  4.64     14.13084   0  0.660
       115   6477.5811    646.9056  20.8396   0.8891  21.4687   1.1869  20.3002   0.7023     1.225     0.973 -75.71  5.69       13.909   0  0.490
       116   1286.4847    650.1207  19.5266   0.4853  19.6282   0.5085  19.5181   0.4865     1.915     1.644 -75.84  3.50      14.4423   0  0.946
       117   6602.3657    651.1425  20.9802   0.9484  21.4689   1.1870  20.8332   0.9053     1.233     0.966 -73.82  4.97     13.90897   0  0.526
       118   6386.3765    651.5591  20.8210   0.8816  21.6455   1.2876  20.4810   0.7651     1.203     0.970 -65.57  6.02     13.90588   0  0.684
       119   6186.9487    655.5570  19.7697   0.5432  20.4838   0.7541  19.3604   0.4520     1.739     1.620  79.17  6.08     13.90489   0  0.528
       120   1939.7899    657.7253  20.3582   0.7121  20.6903   0.8293  20.4436   0.7517     1.490     1.317 -79.62  4.52     14.27264   0  0.607
       121   3673.7739    659.2991  18.9647   0.3746  19.0086   0.3822  18.9121   0.3670     1.970     1.729 -80.27  3.50     13.96864   0  0.966
       122   2628.6145    737.9282  14.0433   0.0388  14.0254   0.0385  14.0040   0.0381     3.789     3.167 -81.09  3.50     14.13749   0  1.000
       123   5139.4507    673.2571  19.6949   0.5249  21.4118   1.1563  19.2318   0.4257     1.570     1.184 -41.27  8.09     13.91463   0  0.029
       124   2674.9382    686.7596  16.3875   0.1143  16.3903   0.1144  16.3497   0.1124     2.330     2.059 -79.38  3.50     14.11168   0  0.985
       125   5444.0356    691.4252  18.9126   0.3657  18.9633   0.3743  18.8444   0.3556     1.984     1.731 -77.68  3.50     13.90717   0  0.961
       126   4131.2109    703.7734  18.0190   0.2423  18.0466   0.2454  17.9726   0.2376     2.146     1.853 -77.58  3.50     13.95029   0  0.980
